wavelength,reflectance
177.272,-755
177.658,268.75
178.044,595
178.43,26.87
178.816,-90.38
179.203,73.53
179.589,138.57
179.975,82.69
180.361,116.07
180.747,83.93
181.133,90.22
181.519,-350
181.904,-350
182.29,212.5
182.676,82.69
183.062,-113.16
183.447,44.52
183.833,82.69
184.219,-78.3
184.604,123.68
184.99,145
185.375,148.21
185.761,-244.12
186.146,123.68
186.531,10
186.917,40.31
187.302,49.19
187.687,38.12
188.073,20.16
188.458,23.58
188.843,-244.12
189.228,63.51
189.613,1450
189.998,-8.87
190.383,126.47
190.768,3250
191.153,10
191.538,40.57
191.923,-32.95
192.307,-125
192.692,313.16
193.077,-518.75
193.461,171.05
193.846,20.16
194.231,78.23
194.615,73.53
195,-12.5
195.384,502.63
195.769,-125
196.153,-402.94
196.537,26.87
196.922,48.08
197.306,145
197.69,112.86
198.074,151.92
198.458,49.49
198.843,-61.32
199.227,-631.25
199.611,-16.29
199.995,42.96
200.379,-125
200.763,-856.25
201.146,20.59
201.53,15.62
201.914,71.87
202.298,6.6
202.681,112.86
203.065,268.75
203.449,-21.15
203.832,-41.43
204.216,5050
204.599,-41.43
204.983,49.49
205.366,26.87
205.75,5050
206.133,15.62
206.516,804.72
206.9,126.47
207.283,7.95
207.666,49.37
208.049,-8.87
208.432,265.79
208.815,-85.29
209.198,-191.18
209.581,11.68
209.964,4.93
210.347,-27.36
210.73,-53.41
211.113,-221.43
211.496,-53.41
211.879,-23.39
212.261,3.93
212.644,-16.29
213.027,-29.38
213.409,40.31
213.792,6.6
214.174,-402.94
214.557,407.89
214.939,3.27
215.322,-55.77
215.704,-92.86
216.086,-6.88
216.469,-42.35
216.851,-53.41
217.233,-27.36
217.615,-51.88
217.997,-37.9
218.379,-159.62
218.761,5.65
219.143,55.63
219.525,23.58
219.907,6.6
220.289,44.38
220.671,3.02
221.053,-67.14
221.435,-5.61
221.816,-29.38
222.198,-125
222.58,3.93
222.961,-52.42
223.343,-6.18
223.724,-13.55
224.106,4.37
224.487,20.09
224.869,-18.13
225.25,-23.98
225.631,-16.29
226.013,20.09
226.394,-16.29
226.775,12.76
227.156,9.33
227.537,2.8
227.919,3.57
228.3,-23.98
228.681,-76.97
229.062,-20.19
229.442,-13.82
229.823,-3.85
230.204,-51.12
230.585,-2.79
230.966,-18.16
231.347,-10.93
231.727,-3.42
232.108,-6.22
232.488,11.34
232.869,11.34
233.25,-5.39
233.63,-20.12
234.01,13.34
234.391,10
234.771,1
235.152,-18.95
235.532,-22.73
235.912,4.99
236.292,5.57
236.672,-5.69
237.053,0.91
237.433,-9.24
237.813,5.14
238.193,8.57
238.573,1.88
238.953,-7
239.333,-2.04
239.712,4.19
240.092,-0.74
240.472,2.63
240.852,1.6
241.231,4.48
241.611,0.4
241.991,4.82
242.37,0.34
242.75,3.54
243.129,1.81
243.509,0.3
243.888,4.53
244.267,3.8
244.647,2.32
245.026,4.21
245.405,2.61
245.784,4.05
246.164,-2.8
246.543,1.34
246.922,1.31
247.301,2.52
247.68,3.85
248.059,5.05
248.438,3.94
248.817,4.56
249.195,1.58
249.574,2.4
249.953,2.01
250.332,1.8
250.71,3.98
251.089,2.56
251.468,2.6
251.846,-0.62
252.225,3.16
252.603,5.21
252.982,3.31
253.36,2.77
253.738,4.73
254.117,5.75
254.495,3.51
254.873,4.57
255.251,2.06
255.63,0.79
256.008,0.77
256.386,4.47
256.764,2.3
257.142,4.16
257.52,3.66
257.898,3.86
258.276,4.78
258.653,3.2
259.031,1.57
259.409,3.87
259.787,0.73
260.164,1.54
260.542,2.49
260.92,3.67
261.297,5.62
261.675,3.24
262.052,1.8
262.43,3.4
262.807,3.24
263.184,2.27
263.562,2.82
263.939,3.98
264.316,4.19
264.693,3.43
265.07,3.05
265.448,3.08
265.825,2.46
266.202,3.86
266.579,4.4
266.956,3.82
267.333,4.36
267.709,4.88
268.086,3.41
268.463,1.71
268.84,3.89
269.216,3.2
269.593,3.81
269.97,2.5
270.346,2.93
270.723,3.91
271.099,4.46
271.476,5.57
271.852,3.82
272.229,1.9
272.605,3.73
272.981,3.81
273.358,4.27
273.734,4.1
274.11,3.01
274.486,2.92
274.862,1.95
275.238,1.71
275.614,2.71
275.99,2.94
276.366,4.82
276.742,5.28
277.118,3.28
277.494,4.49
277.87,4
278.245,3.23
278.621,3.48
278.997,3.18
279.372,3.78
279.748,3.26
280.123,5.72
280.499,4.25
280.874,3.95
281.25,4.93
281.625,1.2
282,1.75
282.376,4.4
282.751,4.19
283.126,5
283.501,5.67
283.876,3.83
284.252,2.97
284.627,4.46
285.002,3.47
285.377,4.29
285.751,4.14
286.126,3.54
286.501,4.72
286.876,4.75
287.251,3.68
287.625,3.81
288,4.26
288.375,3.74
288.749,3.24
289.124,1.15
289.498,3.65
289.873,2.91
290.247,3.23
290.622,1.69
290.996,3.8
291.37,4.29
291.745,2.17
292.119,1.93
292.493,4.29
292.867,4.08
293.241,3.24
293.616,2.99
293.99,3.52
294.364,4.07
294.737,2.79
295.111,3.31
295.485,1.89
295.859,2.23
296.233,3.9
296.607,2.79
296.98,3.64
297.354,3.01
297.728,3.21
298.101,4.08
298.475,2.85
298.848,6.22
299.222,4.21
299.595,1.99
299.968,2.37
300.342,3.98
300.715,4.18
301.088,2.06
301.462,3.1
301.835,0.95
302.208,4.16
302.581,3.99
302.954,3.66
303.327,2.55
303.7,2.32
304.073,4.33
304.446,3.52
304.819,3.6
305.192,3.41
305.564,3.11
305.937,4.98
306.31,4.73
306.682,2.68
307.055,3
307.428,3.95
307.8,4.33
308.173,4.35
308.545,4.28
308.917,2.84
309.29,4.71
309.662,2.79
310.034,3.43
310.407,3.61
310.779,4.16
311.151,2.75
311.523,3.89
311.895,2.86
312.267,2.84
312.639,3
313.011,4.31
313.383,2.84
313.755,3.19
314.127,3.94
314.498,3.2
314.87,2.1
315.242,1.53
315.614,3.21
315.985,3.48
316.357,3.04
316.728,4.72
317.1,4.06
317.471,3.93
317.843,0.4
318.214,1.28
318.585,4.05
318.957,3.68
319.328,1.54
319.699,3.14
320.07,4.26
320.441,3.42
320.813,1.18
321.184,3.87
321.555,2.89
321.926,0.88
322.297,4.27
322.667,2.27
323.038,2.31
323.409,2.25
323.78,3.49
324.151,2.28
324.521,2.94
324.892,3.27
325.262,4.23
325.633,3.11
326.004,2.31
326.374,2.8
326.744,3.92
327.115,2.77
327.485,1.48
327.855,2.27
328.226,2.48
328.596,3.12
328.966,2.06
329.336,4.34
329.706,2.56
330.076,2.05
330.447,3.89
330.816,2.06
331.186,4.26
331.556,3.68
331.926,4.47
332.296,2.77
332.666,0.11
333.036,1.99
333.405,2.59
333.775,1.78
334.144,2.67
334.514,1.47
334.884,2.04
335.253,1.51
335.623,1.79
335.992,2.07
336.361,3.38
336.731,3.51
337.1,2.27
337.469,2.89
337.838,3.07
338.208,2.35
338.577,1.5
338.946,2.78
339.315,3.61
339.684,1.74
340.053,1.2
340.422,3.36
340.79,1.78
341.159,3.37
341.528,3.06
341.897,2.89
342.266,2.51
342.634,3.59
343.003,3.31
343.371,1.46
343.74,3.34
344.108,4.88
344.477,2.57
344.845,1.82
345.214,2.74
345.582,1.5
345.95,3.3
346.319,2.01
346.687,2.73
347.055,1.98
347.423,2.82
347.791,3.89
348.159,3
348.527,0.39
348.895,2.82
349.263,2.94
349.631,3.11
349.999,3.82
350.367,2.33
350.734,3.57
351.102,1.99
351.47,3.56
351.837,1.99
352.205,4.69
352.573,3.07
352.94,4.43
353.308,4.35
353.675,2.3
354.042,3.3
354.41,2.29
354.777,3.16
355.144,2.28
355.511,0.89
355.879,1.77
356.246,2.57
356.613,3.39
356.98,1.5
357.347,2.55
357.714,4.14
358.081,1.78
358.448,2.87
358.815,4.01
359.181,3.34
359.548,3.4
359.915,1.46
360.282,4.71
360.648,4.24
361.015,3.82
361.381,5.27
361.748,2.57
362.114,1.72
362.481,4.32
362.847,2.34
363.214,4.81
363.58,2.85
363.946,3.4
364.312,2.58
364.678,4.64
365.045,3.29
365.411,4.13
365.777,3.37
366.143,3.95
366.509,5
366.875,2.79
367.241,3.5
367.606,3.4
367.972,5.41
368.338,3.87
368.704,3.81
369.069,4.29
369.435,4.04
369.801,4.96
370.166,3.43
370.532,2.57
370.897,4.47
371.263,4.2
371.628,3.49
371.993,5.38
372.359,5.24
372.724,4.84
373.089,6.06
373.454,5.79
373.82,5.24
374.185,5.02
374.55,6.43
374.915,4.63
375.28,6.36
375.645,6.56
376.01,4.79
376.374,6.37
376.739,6.07
377.104,4.46
377.469,5.38
377.833,6.55
378.198,6.19
378.563,7.46
378.927,4.54
379.292,6.6
379.656,4.28
380.021,5.63
380.385,6.13
380.749,7.12
381.114,6.73
381.478,5.84
381.842,5.64
382.206,7.2
382.571,6.79
382.935,8.21
383.299,7.39
383.663,7.86
384.027,6.82
384.391,9.03
384.755,7.86
385.118,7.77
385.482,7.02
385.846,6.55
386.21,6.63
386.573,6.39
386.937,8.5
387.301,6.85
387.664,8.98
388.028,6.58
388.391,8.73
388.755,8.44
389.118,9.3
389.481,6.86
389.845,8.08
390.208,7.31
390.571,8.29
390.934,8.38
391.298,8.2
391.661,8.82
392.024,10.43
392.387,9.96
392.75,9
393.113,9.04
393.476,8.03
393.838,8.77
394.201,8.67
394.564,9.4
394.927,9.81
395.289,8.97
395.652,9.06
396.015,10.36
396.377,9.37
396.74,10.08
397.102,8.01
397.465,10.38
397.827,9.14
398.189,9.28
398.552,9.01
398.914,9.68
399.276,12.53
399.638,11.98
400,11.44
400.363,11.89
400.725,9.26
401.087,10.99
401.449,10.67
401.81,11.96
402.172,11.62
402.534,10.16
402.896,10.57
403.258,11.21
403.619,11.41
403.981,9.81
404.343,11.44
404.704,11.7
405.066,12.66
405.427,10.71
405.789,12.06
406.15,11.06
406.512,13.28
406.873,13.06
407.234,13.32
407.596,12.58
407.957,12.29
408.318,13.63
408.679,12.22
409.04,12.51
409.401,11.56
409.762,13.52
410.123,13.14
410.484,13.86
410.845,13.19
411.206,14.09
411.567,13.04
411.927,13.81
412.288,12.31
412.649,11.19
413.009,13.14
413.37,13.95
413.731,13.5
414.091,15.37
414.452,16.34
414.812,12.96
415.172,14.7
415.533,13.9
415.893,15.29
416.253,13.55
416.613,15.22
416.974,13.88
417.334,15.63
417.694,14.56
418.054,12.99
418.414,15.48
418.774,15.17
419.134,14.36
419.494,15.73
419.853,14.79
420.213,15.54
420.573,14.97
420.933,16.26
421.292,15.33
421.652,15.83
422.011,15.78
422.371,15.33
422.73,15.72
423.09,15.19
423.449,16.94
423.809,16.71
424.168,16.06
424.527,15.28
424.887,16.03
425.246,16.35
425.605,16.21
425.964,16.62
426.323,16.77
426.682,15.32
427.041,16.71
427.4,18.16
427.759,18.55
428.118,17.09
428.477,17.69
428.835,17.43
429.194,17.4
429.553,17.29
429.911,17.39
430.27,17.67
430.629,17.4
430.987,17.5
431.346,17.64
431.704,18.43
432.062,17.51
432.421,18.64
432.779,18.46
433.137,18.19
433.496,18.24
433.854,17.02
434.212,18.81
434.57,18.06
434.928,19.93
435.286,18.83
435.644,20.08
436.002,17.61
436.36,19.9
436.718,19.71
437.075,20.14
437.433,19.09
437.791,19.33
438.149,19.08
438.506,19.9
438.864,19.59
439.221,19.79
439.579,18.7
439.936,18.7
440.294,21.4
440.651,18.97
441.009,19.38
441.366,20.82
441.723,19.82
442.08,21.04
442.437,19.64
442.795,20.5
443.152,20.8
443.509,21.15
443.866,21.68
444.223,19.38
444.58,19.55
444.936,21.39
445.293,21.05
445.65,20.34
446.007,21.21
446.363,21.58
446.72,20.93
447.077,20.16
447.433,21.43
447.79,20.97
448.146,20.85
448.503,20.34
448.859,20.43
449.215,20.93
449.572,21.12
449.928,21.62
450.284,21.23
450.641,19.6
450.997,22.7
451.353,20.65
451.709,20.4
452.065,21.04
452.421,21.44
452.777,21.34
453.133,22.11
453.488,22.63
453.844,22.76
454.2,22.95
454.556,22.62
454.911,22.48
455.267,22.39
455.623,21.7
455.978,21.36
456.334,21.67
456.689,23.31
457.045,22.71
457.4,22.04
457.755,21.5
458.111,22.09
458.466,23
458.821,21.36
459.176,22.62
459.531,22.03
459.886,23.55
460.242,22.72
460.597,23.44
460.951,22.6
461.306,23.2
461.661,23.22
462.016,23.91
462.371,22.4
462.726,22.92
463.08,22.24
463.435,23.87
463.79,23.77
464.144,23.9
464.499,22.79
464.853,19.77
465.208,22.78
465.562,23.35
465.916,21.58
466.271,22.7
466.625,22.76
466.979,22.77
467.333,22.88
467.688,24.17
468.042,24.42
468.396,25.07
468.75,24.35
469.104,22.22
469.458,23.46
469.811,24.89
470.165,25.03
470.519,25.42
470.873,25.74
471.227,24.62
471.58,23.8
471.934,21.67
472.287,22.61
472.641,24.28
472.995,26.82
473.348,24.93
473.701,25.3
474.055,23.4
474.408,24.79
474.761,23.54
475.115,25.49
475.468,25.63
475.821,24.88
476.174,24.04
476.527,24.79
476.88,23.86
477.233,25.73
477.586,25.79
477.939,25.41
478.292,25.61
478.645,26.63
478.998,25.03
479.35,24.8
479.703,24.81
480.056,23.88
480.408,26.92
480.761,27.53
481.113,26.34
481.466,26.34
481.818,26.32
482.171,25.15
482.523,24.94
482.875,25.48
483.228,26.95
483.58,25.89
483.932,25.27
484.284,26.13
484.636,26.15
484.988,25.88
485.34,26.59
485.692,25.73
486.044,25.86
486.396,27.18
486.748,26.01
487.1,25.31
487.451,26.61
487.803,25.02
488.155,26.37
488.506,24.47
488.858,25.23
489.209,24.66
489.561,25.25
489.912,25.25
490.264,24.76
490.615,26.06
490.966,26.2
491.318,24.96
491.669,25.36
492.02,26.06
492.371,26.01
492.722,25.45
493.073,26.78
493.424,26.39
493.775,25.46
494.126,26.77
494.477,24.99
494.828,26.57
495.179,26.21
495.53,25.7
495.88,26.01
496.231,24.95
496.582,26.42
496.932,27.04
497.283,26.85
497.633,27.64
497.984,25.82
498.334,26.05
498.684,27.37
499.035,26.88
499.385,25.92
499.735,26
500.086,25.28
500.436,28.29
500.786,25.65
501.136,25.81
501.486,25.17
501.836,26.47
502.186,26.78
502.536,25.99
502.886,25.68
503.235,26.79
503.585,26.58
503.935,26.48
504.285,27.2
504.634,25.14
504.984,25.29
505.333,26.62
505.683,26.32
506.032,26.81
506.382,26.74
506.731,27.98
507.08,25.33
507.43,25.18
507.779,25.48
508.128,26.72
508.477,27.91
508.826,26.87
509.176,24.95
509.525,25.89
509.874,28.5
510.222,25.77
510.571,27.6
510.92,27
511.269,24.91
511.618,25.95
511.967,26.09
512.315,26.16
512.664,28.14
513.012,25.6
513.361,26.47
513.71,26.44
514.058,25.28
514.406,26.79
514.755,26.11
515.103,24.33
515.451,25.98
515.8,27.49
516.148,25.03
516.496,25.07
516.844,26.61
517.192,24.53
517.54,26.94
517.888,26.91
518.236,26.56
518.584,25.95
518.932,25.49
519.28,25.33
519.628,25.12
519.975,26.67
520.323,26.79
520.671,24.68
521.018,26.33
521.366,26.71
521.713,23.82
522.061,26.18
522.408,25.38
522.756,25.47
523.103,25.55
523.45,26.04
523.798,26.89
524.145,25.51
524.492,26.77
524.839,28.01
525.186,25.53
525.533,24.03
525.88,24.67
526.227,24.85
526.574,26.13
526.921,24.85
527.268,25.73
527.615,25.21
527.961,24.44
528.308,25.26
528.655,24.44
529.001,24.8
529.348,25.12
529.694,25.86
530.041,25.57
530.387,25.76
530.734,27.2
531.08,25.89
531.426,26.44
531.773,25.4
532.119,25.22
532.465,26.31
532.811,24.72
533.157,25.67
533.503,24.9
533.849,24.26
534.195,24.36
534.541,25.35
534.887,26.22
535.233,24.77
535.579,25.91
535.924,24.13
536.27,26
536.616,25.51
536.961,26.41
537.307,26.89
537.652,26.46
537.998,25.03
538.343,25.11
538.689,25.59
539.034,24.82
539.379,26.11
539.725,24.17
540.07,24.04
540.415,25.53
540.76,23.62
541.105,24.48
541.45,25.32
541.795,26.31
542.14,24.48
542.485,24.53
542.83,23.66
543.175,24.29
543.519,23.85
543.864,26.27
544.209,23.43
544.554,23.86
544.898,23.6
545.243,24.82
545.587,23.28
545.932,23.11
546.276,23.76
546.621,24.42
546.965,22.76
547.309,24
547.653,23.5
547.998,23.07
548.342,23.94
548.686,24.86
549.03,22.59
549.374,24.05
549.718,24.55
550.062,23.82
550.406,24.83
550.75,22.2
551.094,23.45
551.437,24
551.781,23.27
552.125,23.62
552.468,22.72
552.812,22.92
553.156,23.09
553.499,23.57
553.843,24.36
554.186,22.43
554.529,22.51
554.873,23.22
555.216,23.48
555.559,23.81
555.902,24.77
556.246,23.81
556.589,21.33
556.932,21.6
557.275,23.79
557.618,23.69
557.961,23.6
558.304,23.78
558.646,24.77
558.989,23.98
559.332,22.66
559.675,22.1
560.017,22.98
560.36,22.33
560.703,22.24
561.045,22.24
561.388,22.7
561.73,22.95
562.073,23.63
562.415,21.9
562.757,23.38
563.1,22.9
563.442,23.98
563.784,23.2
564.126,22.56
564.468,24.05
564.81,22.53
565.152,21.83
565.494,22.91
565.836,23.19
566.178,21.25
566.52,23.02
566.862,22.27
567.204,22.36
567.545,21.75
567.887,21.92
568.229,21.37
568.57,21.07
568.912,22.9
569.253,21.54
569.595,21.46
569.936,21.45
570.277,20.58
570.619,20.56
570.96,21.3
571.301,21.37
571.642,22.05
571.984,22.47
572.325,20.02
572.666,20.36
573.007,21.64
573.348,21.82
573.689,20.91
574.03,20.12
574.37,20.48
574.711,20.41
575.052,21.05
575.393,20.06
575.733,20.7
576.074,21.19
576.414,20.41
576.755,20.27
577.095,20.2
577.436,20.31
577.776,20.9
578.117,20.43
578.457,20.74
578.797,20.18
579.137,20.76
579.478,19.41
579.818,19.31
580.158,19.87
580.498,19.65
580.838,19.8
581.178,19.49
581.518,20.26
581.858,19.87
582.197,19.46
582.537,19.29
582.877,18.69
583.217,18.57
583.556,19.69
583.896,18.82
584.235,19.7
584.575,19.65
584.914,19.1
585.254,19.33
585.593,19.31
585.933,19.1
586.272,19.22
586.611,18.99
586.95,18.21
587.289,19.59
587.629,19.16
587.968,18.47
588.307,18.63
588.646,18.68
588.985,18.5
589.323,18.82
589.662,18.48
590.001,19.04
590.34,19.04
590.679,18.3
591.017,18.73
591.356,18.34
591.695,18.61
592.033,18.51
592.372,19.2
592.71,18.12
593.048,18.09
593.387,18.59
593.725,17.66
594.063,17.87
594.402,18.04
594.74,17.89
595.078,17.25
595.416,17.96
595.754,17.69
596.092,18.49
596.43,17.35
596.768,18.4
597.106,16.72
597.444,17.65
597.781,16.87
598.119,17.21
598.457,18.01
598.795,18.43
599.132,17.09
599.47,17.22
599.807,17.59
600.145,17.73
600.482,17.43
600.82,17.55
601.157,16.91
601.494,16.43
601.831,17.35
602.169,17.26
602.506,17.14
602.843,16.82
603.18,16.48
603.517,17.76
603.854,17.16
604.191,16.41
604.528,17.94
604.865,16.31
605.202,16.18
605.538,17
605.875,17.03
606.212,16.41
606.548,16.47
606.885,16.26
607.222,16.13
607.558,16.61
607.895,16.25
608.231,16.84
608.567,16.13
608.904,16.5
609.24,16.63
609.576,16.18
609.912,16.79
610.248,16.36
610.585,16.56
610.921,15.5
611.257,14.96
611.593,15.01
611.929,15.97
612.264,14.92
612.6,15.58
612.936,16.11
613.272,15.45
613.608,16.67
613.943,15.31
614.279,17.01
614.614,15.49
614.95,14.98
615.285,16.22
615.621,15.19
615.956,15.1
616.292,15.91
616.627,15.21
616.962,15.65
617.297,15.79
617.632,14.93
617.968,14.87
618.303,15.4
618.638,15.35
618.973,14.32
619.308,15.47
619.643,14.12
619.977,14.41
620.312,14.72
620.647,14.26
620.982,15.7
621.316,14.11
621.651,15.27
621.986,14.56
622.32,14.93
622.655,15.71
622.989,14.49
623.324,15.05
623.658,15.89
623.992,14.69
624.326,16.16
624.661,15.21
624.995,13.74
625.329,16.18
625.663,15.54
625.997,13.92
626.331,14.13
626.665,14.97
626.999,15.09
627.333,15.33
627.667,14.37
628.001,13.81
628.334,13.62
628.668,14.33
629.002,13.04
629.335,13.24
629.669,13.92
630.002,14.19
630.336,14.86
630.669,15.47
631.003,15.52
631.336,12.34
631.669,14.02
632.003,14.56
632.336,13.52
632.669,13.22
633.002,13.09
633.335,12.59
633.668,14.38
634.001,14.36
634.334,13.85
634.667,13.73
635,13.38
635.333,14.31
635.665,13.33
635.998,14.73
636.331,13.31
636.663,12.77
636.996,13.4
637.328,15.19
637.661,14.59
637.993,12.72
638.326,13.64
638.658,13.8
638.99,12.67
639.323,13.95
639.655,12.21
639.987,12.78
640.319,11.12
640.651,13.32
640.983,11.8
641.315,14.42
641.647,13.37
641.979,13.76
642.311,12.43
642.643,12.79
642.975,14.8
643.306,12.8
643.638,12.34
643.97,11.72
644.301,13.81
644.633,10.57
644.964,12.93
645.296,11.53
645.627,12.42
645.959,13.8
646.29,11.63
646.621,14.34
646.952,11.46
647.284,13.44
647.615,12.04
647.946,14.65
648.277,11.5
648.608,13.24
648.939,12.1
649.27,11.89
649.601,11.96
649.931,13.35
650.262,12.77
650.593,12.65
650.924,12.39
651.254,10.89
651.585,11.96
651.915,12.14
652.246,13.58
652.576,11.75
652.907,11.9
653.237,12.79
653.568,12.19
653.898,11.63
654.228,13.21
654.558,14.02
654.888,12.02
655.219,12.54
655.549,11.44
655.879,11.69
656.209,12.31
656.539,10.96
656.868,13.92
657.198,11.52
657.528,12.04
657.858,11.37
658.188,11.43
658.517,11.77
658.847,11.35
659.176,11.14
659.506,11.37
659.835,11.15
660.165,11.27
660.494,11.81
660.824,11.98
661.153,11.71
661.482,11.95
661.811,11.48
662.14,11.47
662.47,11.56
662.799,11.69
663.128,11.72
663.457,11.28
663.786,11.07
664.114,11.57
664.443,11.27
664.772,11.6
665.101,10.18
665.43,11.52
665.758,11.66
666.087,11
666.415,10.5
666.744,13.01
667.072,12.61
667.401,11.37
667.729,10.32
668.058,10.71
668.386,12.27
668.714,11.32
669.042,13.92
669.371,12.37
669.699,11.71
670.027,10.3
670.355,12.37
670.683,12.34
